File: old/ueberstruktur/Auswertung/roentgenografische methode daten/probe2.UXD
; C:\Data\Froehlich\Praktikum\2016-02-09_ignatiev\probe2.raw(Diffrac Plus V1.01 file) converted by XCH V1.0
_FILEVERSION=2
_SAMPLE='Probe2'
_SITE='II. Physikalisches Institut'
_ATTACHMENTS_CODE=0
_GONIOMETER_RADIUS=200.5
_FIXED_DIVSLIT=2.000000
_FIXED_SAMPLESLIT=1.000000
_FIXED_DETSLIT=0.200000
_MONOCHROMATOR=0
; None
_THIN_FILM='N'
_BETA_FILTER='Y'
_FIXED_ANTISLIT=2.000000
_ANALYZER_CODE=0
; None
_DATEMEASURED='09-Feb-2016 20:56:04'
_WL_UNIT='A'
_WL1=1.540590
_WL2=1.544430
_WL3=1.392230
_WLRATIO=0.520000
_ANODE='Cu'
; (Data for Range number 1)
_DRIVE='COUPLED'
_STEPTIME=2.000000
_STEPSIZE=0.022000
_STEPMODE='C'
_START=12
_THETA=6.000000
_2THETA=12
_KHI=0.000000
_PHI=0.000000
_X=0.000000
_Y=0.000000
_Z=0.000000
_DIVERGENCE=0.000000
_ANTISCATTER=0.000000
_DETECTOR=1
; S.C.
_HV=1000
_GAIN=80
_LLD=0.550000
_ULD=1.310000
_DETECTORSLIT='unkn'
_AUX1=0.000000
_AUX2=0.000000
_AUX3=0.000000
_TIMESTARTED=13
_ROTATION_SPEED=120
_TEMP_RATE=-1.000000
_TEMP_DELAY=-1.000000
_KV=40
_MA=40
_RANGE_WL=1.540590
_3DPLANE=0
_2THETACOUNTS
  12.0000       233
  12.3740       242
  12.7480       211
  13.1220       232
  13.4960       226
  13.8700       254
  14.2440       262
  14.6180       230
  14.9920       244
  15.3660       249
  15.7400       234
  16.1140       275
  16.4880       270
  16.8620       300
  17.2360       288
  17.6100       276
  17.9840       306
  18.3580       297
  18.7320       318
  19.1060       307
  19.4800       309
  19.8540       302
  20.2280       306
  20.6020       336
  20.9760       365
  21.3500       372
  21.7240       343
  22.0980       364
  22.4720       386
  22.8460       430
  23.2200       405
  23.5940       563
  23.9680       466
  24.3420       431
  24.7160       409
  25.0900       393
  25.4640       380
  25.8380       370
  26.2120       376
  26.5860       404
  26.9600       405
  27.3340       370
  27.7080       370
  28.0820       363
  28.4560       383
  28.8300       356
  29.2040       382
  29.5780       401
  29.9520       391
  30.3260       401
  30.7000       393
  31.0740       381
  31.4480       408
  31.8220       342
  32.1960       380
  32.5700       377
  32.9440       386
  33.3180       442
  33.6920       475
  34.0660       431
  34.4400       375
  34.8140       348
  35.1880       397
  35.5620       369
  35.9360       361
  36.3100       328
  36.6840       381
  37.0580       357
  37.4320       443
  37.8060       420
  38.1800       408
  38.5540       424
  38.9280       370
  39.3020       379
  39.6760       399
  40.0500       386
  40.4240       462
  40.7980       516
  41.1720       981
  41.5460      3946
  41.9200       971
  42.2940       437
  42.6680       408
  43.0420       411
  43.4160       478
  43.7900       419
  44.1640       397
  44.5380       427
  44.9120       412
  45.2860       359
  45.6600       391
  46.0340       391
  46.4080       407
  46.7820       446
  47.1560       461
  47.5300       570
  47.9040       984
  48.2780      2663
  48.6520      1545
  49.0260       555
  49.4000       437
  49.7740       415
  50.1480       385
  50.5220       368
  50.8960       390
  51.2700       394
  51.6440       394
  52.0180       421
  52.3920       394
  52.7660       368
  53.1400       418
  53.5140       369
  53.8880       375
  54.2620       438
  54.6360       487
  55.0100       437
  55.3840       449
  55.7580       396
  56.1320       417
  56.5060       395
  56.8800       374
  57.2540       379
  57.6280       420
  58.0020       421
  58.3760       423
  58.7500       383
  59.1240       390
  59.4980       414
  59.8720       465
  60.2460       464
  60.6200       422
  60.9940       432
  61.3680       417
  61.7420       426
  62.1160       423
  62.4900       408
  62.8640       415
  63.2380       407
  63.6120       398
  63.9860       425
  64.3600       458
  64.7340       388
  65.1080       440
  65.4820       371
  65.8560       412
  66.2300       375
  66.6040       414
  66.9780       373
  67.3520       408
  67.7260       400
  68.1000       420
  68.4740       422
  68.8480       408
  69.2220       403
  69.5960       426
  69.9700       456
  70.3440       530
  70.7180       755
  71.0920       993
  71.4660       597
  71.8400       437
  72.2140       430
  72.5880       383
  72.9620       425
  73.3360       425
  73.7100       431
  74.0840       390
  74.4580       416
  74.8320       380
  75.2060       409
  75.5800       465
  75.9540       470
  76.3280       423
  76.7020       464
  77.0760       426
  77.4500       421
  77.8240       407
  78.1980       398
  78.5720       403
  78.9460       414
  79.3200       420
  79.6940       453
  80.0680       448
  80.4420       408
  80.8160       473
  81.1900       453
  81.5640       453
  81.9380       427
  82.3120       490
  82.6860       398
  83.0600       412
  83.4340       467
  83.8080       391
  84.1820       438
  84.5560       445
  84.9300       545
  85.3040       585
  85.6780       968
  86.0520       898
  86.4260       586
  86.8000       509
  87.1740       427
  87.5480       412
  87.9220       395
  88.2960       409
  88.6700       439
  89.0440       432
  89.4180       376
  89.7920       446
  90.1660       476
  90.5400       572
  90.9140       589
  91.2880       506
  91.6620       414
  92.0360       416
  92.4100       433
  92.7840       422
  93.1580       369
  93.5320       396
  93.9060       402
  94.2800       405
  94.6540       377
  95.0280       392
  95.4020       447
  95.7760       464
  96.1500       463
  96.5240       414
  96.8980       407
  97.2720       407
  97.6460       421
  98.0200       403
  98.3940       424
  98.7680       462
  99.1420       447
  99.5160       432
  99.8900       423
 100.2640       453
 100.6380       432
 101.0120       450
 101.3860       431
 101.7600       430
 102.1340       405
 102.5080       408
 102.8820       408
 103.2560       406
 103.6300       405
 104.0040       437
 104.3780       431
 104.7520       420
 105.1260       371
 105.5000       420
 105.8740       413
 106.2480       442
 106.6220       452
 106.9960       452
 107.3700       465
 107.7440       448
 108.1180       410
 108.4920       452
 108.8660       461
 109.2400       455
 109.6140       484
 109.9880       507
 110.3620       571
 110.7360       504
 111.1100       471
 111.4840       451
 111.8580       448
 112.2320       448
 112.6060       437
 112.9800       409
 113.3540       434
 113.7280       436
 114.1020       444
 114.4760       445
 114.8500       433
 115.2240       462
 115.5980       497
 115.9720       475
 116.3460       485
 116.7200       455
 117.0940       438
 117.4680       466
 117.8420       453
 118.2160       447
 118.5900       435
 118.9640       458
 119.3380       457
 119.7120       426
 120.0860       430
 120.4600       471
 120.8340       481
 121.2080       420
 121.5820       500
 121.9560       480
 122.0000       442