File: old/ueberstruktur/Auswertung/roentgenografische methode daten/probe1.UXD
; C:\Data\Froehlich\Praktikum\2016-02-09_ignatiev\probe1.raw(Diffrac Plus V1.01 file) converted by XCH V1.0
_FILEVERSION=2
_SAMPLE='Probe1'
_SITE='II. Physikalisches Institut'
_ATTACHMENTS_CODE=0
_GONIOMETER_RADIUS=200.5
_FIXED_DIVSLIT=2.000000
_FIXED_SAMPLESLIT=1.000000
_FIXED_DETSLIT=0.200000
_MONOCHROMATOR=0
; None
_THIN_FILM='N'
_BETA_FILTER='Y'
_FIXED_ANTISLIT=2.000000
_ANALYZER_CODE=0
; None
_DATEMEASURED='09-Feb-2016 18:08:43'
_WL_UNIT='A'
_WL1=1.540590
_WL2=1.544430
_WL3=1.392230
_WLRATIO=0.520000
_ANODE='Cu'
; (Data for Range number 1)
_DRIVE='COUPLED'
_STEPTIME=2.000000
_STEPSIZE=0.022000
_STEPMODE='C'
_START=12
_THETA=6.000000
_2THETA=12
_KHI=0.000000
_PHI=0.000000
_X=0.000000
_Y=0.000000
_Z=0.000000
_DIVERGENCE=0.000000
_ANTISCATTER=0.000000
_DETECTOR=1
; S.C.
_HV=1000
_GAIN=80
_LLD=0.550000
_ULD=1.310000
_DETECTORSLIT='unkn'
_AUX1=0.000000
_AUX2=0.000000
_AUX3=0.000000
_TIMESTARTED=18
_ROTATION_SPEED=120
_TEMP_RATE=-1.000000
_TEMP_DELAY=-1.000000
_KV=40
_MA=40
_RANGE_WL=1.540590
_3DPLANE=0
_2THETACOUNTS
  12.0000       302
  12.3740       290
  12.7480       309
  13.1220       271
  13.4960       268
  13.8700       299
  14.2440       312
  14.6180       286
  14.9920       280
  15.3660       288
  15.7400       305
  16.1140       266
  16.4880       304
  16.8620       312
  17.2360       282
  17.6100       342
  17.9840       324
  18.3580       383
  18.7320       314
  19.1060       332
  19.4800       377
  19.8540       386
  20.2280       346
  20.6020       382
  20.9760       423
  21.3500       421
  21.7240       406
  22.0980       437
  22.4720       447
  22.8460       423
  23.2200       431
  23.5940       433
  23.9680       460
  24.3420       465
  24.7160       445
  25.0900       465
  25.4640       431
  25.8380       476
  26.2120       452
  26.5860       461
  26.9600       460
  27.3340       458
  27.7080       496
  28.0820       433
  28.4560       384
  28.8300       411
  29.2040       455
  29.5780       455
  29.9520       407
  30.3260       430
  30.7000       410
  31.0740       407
  31.4480       405
  31.8220       416
  32.1960       401
  32.5700       436
  32.9440       435
  33.3180       394
  33.6920       366
  34.0660       412
  34.4400       449
  34.8140       395
  35.1880       385
  35.5620       385
  35.9360       385
  36.3100       421
  36.6840       401
  37.0580       367
  37.4320       440
  37.8060       427
  38.1800       437
  38.5540       397
  38.9280       383
  39.3020       389
  39.6760       401
  40.0500       401
  40.4240       429
  40.7980       436
  41.1720       490
  41.5460      1021
  41.9200      3923
  42.2940       822
  42.6680       492
  43.0420       402
  43.4160       373
  43.7900       413
  44.1640       417
  44.5380       394
  44.9120       391
  45.2860       381
  45.6600       397
  46.0340       414
  46.4080       417
  46.7820       420
  47.1560       422
  47.5300       467
  47.9040       536
  48.2780      1063
  48.6520      2512
  49.0260      1027
  49.4000       565
  49.7740       446
  50.1480       420
  50.5220       436
  50.8960       440
  51.2700       411
  51.6440       382
  52.0180       386
  52.3920       396
  52.7660       395
  53.1400       364
  53.5140       374
  53.8880       432
  54.2620       380
  54.6360       373
  55.0100       408
  55.3840       396
  55.7580       401
  56.1320       398
  56.5060       386
  56.8800       399
  57.2540       382
  57.6280       390
  58.0020       413
  58.3760       396
  58.7500       422
  59.1240       380
  59.4980       383
  59.8720       420
  60.2460       389
  60.6200       391
  60.9940       400
  61.3680       429
  61.7420       439
  62.1160       398
  62.4900       422
  62.8640       407
  63.2380       417
  63.6120       447
  63.9860       407
  64.3600       427
  64.7340       456
  65.1080       446
  65.4820       435
  65.8560       369
  66.2300       453
  66.6040       418
  66.9780       400
  67.3520       401
  67.7260       454
  68.1000       439
  68.4740       444
  68.8480       428
  69.2220       398
  69.5960       472
  69.9700       408
  70.3440       473
  70.7180       526
  71.0920       934
  71.4660       817
  71.8400       483
  72.2140       434
  72.5880       451
  72.9620       439
  73.3360       391
  73.7100       444
  74.0840       415
  74.4580       400
  74.8320       414
  75.2060       437
  75.5800       443
  75.9540       388
  76.3280       435
  76.7020       428
  77.0760       418
  77.4500       426
  77.8240       421
  78.1980       455
  78.5720       450
  78.9460       404
  79.3200       430
  79.6940       394
  80.0680       397
  80.4420       443
  80.8160       420
  81.1900       425
  81.5640       431
  81.9380       446
  82.3120       448
  82.6860       408
  83.0600       442
  83.4340       442
  83.8080       446
  84.1820       448
  84.5560       487
  84.9300       464
  85.3040       548
  85.6780       780
  86.0520      1055
  86.4260       798
  86.8000       535
  87.1740       448
  87.5480       433
  87.9220       428
  88.2960       469
  88.6700       430
  89.0440       472
  89.4180       423
  89.7920       404
  90.1660       482
  90.5400       511
  90.9140       652
  91.2880       552
  91.6620       461
  92.0360       419
  92.4100       403
  92.7840       418
  93.1580       450
  93.5320       415
  93.9060       431
  94.2800       413
  94.6540       439
  95.0280       400
  95.4020       405
  95.7760       393
  96.1500       404
  96.5240       423
  96.8980       405
  97.2720       476
  97.6460       421
  98.0200       403
  98.3940       457
  98.7680       436
  99.1420       435
  99.5160       443
  99.8900       420
 100.2640       430
 100.6380       449
 101.0120       443
 101.3860       432
 101.7600       446
 102.1340       461
 102.5080       452
 102.8820       432
 103.2560       407
 103.6300       417
 104.0040       424
 104.3780       440
 104.7520       468
 105.1260       477
 105.5000       432
 105.8740       431
 106.2480       461
 106.6220       422
 106.9960       436
 107.3700       457
 107.7440       405
 108.1180       442
 108.4920       427
 108.8660       423
 109.2400       469
 109.6140       471
 109.9880       531
 110.3620       556
 110.7360       535
 111.1100       559
 111.4840       502
 111.8580       482
 112.2320       436
 112.6060       456
 112.9800       477
 113.3540       448
 113.7280       437
 114.1020       479
 114.4760       460
 114.8500       440
 115.2240       467
 115.5980       449
 115.9720       447
 116.3460       442
 116.7200       452
 117.0940       459
 117.4680       466
 117.8420       456
 118.2160       442
 118.5900       434
 118.9640       446
 119.3380       449
 119.7120       445
 120.0860       459
 120.4600       480
 120.8340       467
 121.2080       467
 121.5820       434
 121.9560       459
 122.0000       465