File: old/ueberstruktur/Auswertung/roentgenografische methode daten/probe3.UXD
; C:\Data\Froehlich\Praktikum\2016-02-09_ignatiev\probe3.raw(Diffrac Plus V1.01 file) converted by XCH V1.0
_FILEVERSION=2
_SAMPLE='Probe3'
_SITE='II. Physikalisches Institut'
_ATTACHMENTS_CODE=0
_GONIOMETER_RADIUS=200.5
_FIXED_DIVSLIT=2.000000
_FIXED_SAMPLESLIT=1.000000
_FIXED_DETSLIT=0.200000
_MONOCHROMATOR=0
; None
_THIN_FILM='N'
_BETA_FILTER='Y'
_FIXED_ANTISLIT=2.000000
_ANALYZER_CODE=0
; None
_DATEMEASURED='09-Feb-2016 23:43:25'
_WL_UNIT='A'
_WL1=1.540590
_WL2=1.544430
_WL3=1.392230
_WLRATIO=0.520000
_ANODE='Cu'
; (Data for Range number 1)
_DRIVE='COUPLED'
_STEPTIME=2.000000
_STEPSIZE=0.022000
_STEPMODE='C'
_START=12
_THETA=6.000000
_2THETA=12
_KHI=0.000000
_PHI=0.000000
_X=0.000000
_Y=0.000000
_Z=0.000000
_DIVERGENCE=0.000000
_ANTISCATTER=0.000000
_DETECTOR=1
; S.C.
_HV=1000
_GAIN=80
_LLD=0.550000
_ULD=1.310000
_DETECTORSLIT='unkn'
_AUX1=0.000000
_AUX2=0.000000
_AUX3=0.000000
_TIMESTARTED=13
_ROTATION_SPEED=120
_TEMP_RATE=-1.000000
_TEMP_DELAY=-1.000000
_KV=40
_MA=40
_RANGE_WL=1.540590
_3DPLANE=0
_2THETACOUNTS
  12.0000       216
  12.3740       249
  12.7480       244
  13.1220       254
  13.4960       248
  13.8700       243
  14.2440       239
  14.6180       281
  14.9920       237
  15.3660       245
  15.7400       274
  16.1140       229
  16.4880       264
  16.8620       275
  17.2360       268
  17.6100       294
  17.9840       274
  18.3580       277
  18.7320       298
  19.1060       308
  19.4800       355
  19.8540       312
  20.2280       330
  20.6020       339
  20.9760       377
  21.3500       384
  21.7240       386
  22.0980       383
  22.4720       340
  22.8460       362
  23.2200       362
  23.5940       412
  23.9680       393
  24.3420       396
  24.7160       355
  25.0900       356
  25.4640       345
  25.8380       329
  26.2120       366
  26.5860       380
  26.9600       370
  27.3340       328
  27.7080       330
  28.0820       333
  28.4560       314
  28.8300       303
  29.2040       293
  29.5780       291
  29.9520       327
  30.3260       339
  30.7000       310
  31.0740       335
  31.4480       307
  31.8220       347
  32.1960       286
  32.5700       289
  32.9440       312
  33.3180       320
  33.6920       360
  34.0660       310
  34.4400       270
  34.8140       241
  35.1880       260
  35.5620       259
  35.9360       244
  36.3100       246
  36.6840       253
  37.0580       251
  37.4320       253
  37.8060       259
  38.1800       252
  38.5540       248
  38.9280       269
  39.3020       229
  39.6760       230
  40.0500       262
  40.4240       246
  40.7980       286
  41.1720       289
  41.5460       564
  41.9200      1637
  42.2940       377
  42.6680       276
  43.0420       245
  43.4160       229
  43.7900       267
  44.1640       210
  44.5380       248
  44.9120       233
  45.2860       246
  45.6600       248
  46.0340       257
  46.4080       216
  46.7820       253
  47.1560       253
  47.5300       234
  47.9040       306
  48.2780       595
  48.6520       829
  49.0260       411
  49.4000       261
  49.7740       252
  50.1480       250
  50.5220       231
  50.8960       220
  51.2700       189
  51.6440       233
  52.0180       234
  52.3920       235
  52.7660       234
  53.1400       240
  53.5140       218
  53.8880       236
  54.2620       232
  54.6360       282
  55.0100       282
  55.3840       233
  55.7580       251
  56.1320       194
  56.5060       216
  56.8800       238
  57.2540       243
  57.6280       225
  58.0020       242
  58.3760       233
  58.7500       239
  59.1240       241
  59.4980       219
  59.8720       258
  60.2460       245
  60.6200       258
  60.9940       258
  61.3680       244
  61.7420       240
  62.1160       267
  62.4900       250
  62.8640       240
  63.2380       217
  63.6120       249
  63.9860       233
  64.3600       234
  64.7340       269
  65.1080       228
  65.4820       250
  65.8560       243
  66.2300       231
  66.6040       237
  66.9780       238
  67.3520       250
  67.7260       248
  68.1000       175
  68.4740       246
  68.8480       241
  69.2220       251
  69.5960       220
  69.9700       246
  70.3440       242
  70.7180       269
  71.0920       468
  71.4660       358
  71.8400       259
  72.2140       240
  72.5880       240
  72.9620       258
  73.3360       245
  73.7100       235
  74.0840       200
  74.4580       229
  74.8320       208
  75.2060       233
  75.5800       218
  75.9540       206
  76.3280       251
  76.7020       255
  77.0760       223
  77.4500       218
  77.8240       220
  78.1980       258
  78.5720       233
  78.9460       233
  79.3200       219
  79.6940       214
  80.0680       228
  80.4420       231
  80.8160       253
  81.1900       243
  81.5640       248
  81.9380       232
  82.3120       215
  82.6860       207
  83.0600       251
  83.4340       226
  83.8080       234
  84.1820       211
  84.5560       261
  84.9300       279
  85.3040       321
  85.6780       406
  86.0520       485
  86.4260       360
  86.8000       264
  87.1740       206
  87.5480       227
  87.9220       233
  88.2960       224
  88.6700       202
  89.0440       235
  89.4180       216
  89.7920       225
  90.1660       258
  90.5400       288
  90.9140       290
  91.2880       258
  91.6620       220
  92.0360       230
  92.4100       225
  92.7840       235
  93.1580       215
  93.5320       205
  93.9060       235
  94.2800       230
  94.6540       220
  95.0280       225
  95.4020       231
  95.7760       254
  96.1500       228
  96.5240       244
  96.8980       212
  97.2720       222
  97.6460       244
  98.0200       240
  98.3940       213
  98.7680       243
  99.1420       236
  99.5160       216
  99.8900       230
 100.2640       216
 100.6380       231
 101.0120       280
 101.3860       249
 101.7600       216
 102.1340       227
 102.5080       216
 102.8820       206
 103.2560       236
 103.6300       237
 104.0040       222
 104.3780       213
 104.7520       232
 105.1260       206
 105.5000       218
 105.8740       239
 106.2480       219
 106.6220       229
 106.9960       204
 107.3700       206
 107.7440       241
 108.1180       232
 108.4920       235
 108.8660       249
 109.2400       234
 109.6140       234
 109.9880       251
 110.3620       244
 110.7360       257
 111.1100       243
 111.4840       266
 111.8580       203
 112.2320       198
 112.6060       232
 112.9800       233
 113.3540       247
 113.7280       245
 114.1020       248
 114.4760       247
 114.8500       238
 115.2240       242
 115.5980       249
 115.9720       243
 116.3460       263
 116.7200       251
 117.0940       234
 117.4680       271
 117.8420       254
 118.2160       268
 118.5900       240
 118.9640       254
 119.3380       245
 119.7120       237
 120.0860       276
 120.4600       258
 120.8340       252
 121.2080       268
 121.5820       284
 121.9560       291
 122.0000       265