File: old/ueberstruktur/Ueberstruktur (2)/faber/probe2.UXD
; C:\Data\Froehlich\Praktikum\faber\probe2.raw(Diffrac Plus V1.01 file) converted by XCH V1.0
_FILEVERSION=2
_SAMPLE='probe2'
_SITE='II. Physikalisches Institut'
_ATTACHMENTS_CODE=0
_GONIOMETER_RADIUS=200.5
_FIXED_DIVSLIT=2.000000
_FIXED_SAMPLESLIT=1.000000
_FIXED_DETSLIT=0.200000
_MONOCHROMATOR=0
; None
_THIN_FILM='N'
_BETA_FILTER='Y'
_FIXED_ANTISLIT=2.000000
_ANALYZER_CODE=0
; None
_DATEMEASURED='12-Nov-2015 16:55:34'
_WL_UNIT='A'
_WL1=1.540590
_WL2=1.544430
_WL3=1.392230
_WLRATIO=0.520000
_ANODE='Cu'
; (Data for Range number 1)
_DRIVE='COUPLED'
_STEPTIME=2.000000
_STEPSIZE=0.022000
_STEPMODE='C'
_START=12
_THETA=6.000000
_2THETA=12
_KHI=0.000000
_PHI=0.000000
_X=0.000000
_Y=0.000000
_Z=0.000000
_DIVERGENCE=0.000000
_ANTISCATTER=0.000000
_DETECTOR=1
; S.C.
_HV=1000
_GAIN=80
_LLD=0.550000
_ULD=1.310000
_DETECTORSLIT='unkn'
_AUX1=0.000000
_AUX2=0.000000
_AUX3=0.000000
_TIMESTARTED=13
_ROTATION_SPEED=120
_TEMP_RATE=-1.000000
_TEMP_DELAY=-1.000000
_KV=40
_MA=40
_RANGE_WL=1.540590
_3DPLANE=0
_2THETACOUNTS
  12.0000       220
  12.3740       232
  12.7480       232
  13.1220       261
  13.4960       215
  13.8700       250
  14.2440       257
  14.6180       243
  14.9920       269
  15.3660       271
  15.7400       278
  16.1140       286
  16.4880       306
  16.8620       277
  17.2360       305
  17.6100       310
  17.9840       301
  18.3580       332
  18.7320       328
  19.1060       320
  19.4800       383
  19.8540       324
  20.2280       355
  20.6020       369
  20.9760       346
  21.3500       372
  21.7240       375
  22.0980       392
  22.4720       418
  22.8460       420
  23.2200       432
  23.5940       504
  23.9680       516
  24.3420       454
  24.7160       429
  25.0900       426
  25.4640       447
  25.8380       456
  26.2120       437
  26.5860       414
  26.9600       436
  27.3340       360
  27.7080       375
  28.0820       433
  28.4560       415
  28.8300       409
  29.2040       390
  29.5780       425
  29.9520       421
  30.3260       388
  30.7000       391
  31.0740       427
  31.4480       394
  31.8220       382
  32.1960       407
  32.5700       387
  32.9440       443
  33.3180       474
  33.6920       472
  34.0660       608
  34.4400       464
  34.8140       439
  35.1880       423
  35.5620       402
  35.9360       371
  36.3100       416
  36.6840       349
  37.0580       383
  37.4320       431
  37.8060       445
  38.1800       471
  38.5540       422
  38.9280       390
  39.3020       387
  39.6760       401
  40.0500       403
  40.4240       421
  40.7980       437
  41.1720       599
  41.5460      1604
  41.9200      3079
  42.2940       593
  42.6680       446
  43.0420       422
  43.4160       405
  43.7900       447
  44.1640       394
  44.5380       400
  44.9120       385
  45.2860       380
  45.6600       386
  46.0340       415
  46.4080       410
  46.7820       458
  47.1560       432
  47.5300       474
  47.9040       608
  48.2780      1164
  48.6520      2227
  49.0260       861
  49.4000       510
  49.7740       409
  50.1480       439
  50.5220       400
  50.8960       350
  51.2700       382
  51.6440       342
  52.0180       394
  52.3920       371
  52.7660       404
  53.1400       436
  53.5140       439
  53.8880       409
  54.2620       461
  54.6360       512
  55.0100       520
  55.3840       463
  55.7580       388
  56.1320       441
  56.5060       423
  56.8800       383
  57.2540       392
  57.6280       409
  58.0020       392
  58.3760       410
  58.7500       415
  59.1240       407
  59.4980       404
  59.8720       417
  60.2460       420
  60.6200       531
  60.9940       462
  61.3680       411
  61.7420       431
  62.1160       398
  62.4900       398
  62.8640       408
  63.2380       414
  63.6120       427
  63.9860       397
  64.3600       444
  64.7340       459
  65.1080       432
  65.4820       361
  65.8560       397
  66.2300       395
  66.6040       404
  66.9780       397
  67.3520       412
  67.7260       375
  68.1000       393
  68.4740       396
  68.8480       437
  69.2220       402
  69.5960       446
  69.9700       446
  70.3440       453
  70.7180       557
  71.0920      1251
  71.4660       985
  71.8400       503
  72.2140       449
  72.5880       411
  72.9620       434
  73.3360       422
  73.7100       392
  74.0840       434
  74.4580       420
  74.8320       414
  75.2060       423
  75.5800       476
  75.9540       453
  76.3280       494
  76.7020       484
  77.0760       442
  77.4500       477
  77.8240       427
  78.1980       417
  78.5720       403
  78.9460       431
  79.3200       425
  79.6940       401
  80.0680       414
  80.4420       415
  80.8160       462
  81.1900       439
  81.5640       428
  81.9380       420
  82.3120       443
  82.6860       429
  83.0600       391
  83.4340       402
  83.8080       425
  84.1820       413
  84.5560       433
  84.9300       510
  85.3040       555
  85.6780       736
  86.0520      1074
  86.4260       841
  86.8000       517
  87.1740       466
  87.5480       426
  87.9220       422
  88.2960       392
  88.6700       386
  89.0440       439
  89.4180       452
  89.7920       405
  90.1660       438
  90.5400       464
  90.9140       606
  91.2880       542
  91.6620       443
  92.0360       394
  92.4100       385
  92.7840       382
  93.1580       409
  93.5320       421
  93.9060       410
  94.2800       409
  94.6540       421
  95.0280       411
  95.4020       438
  95.7760       446
  96.1500       458
  96.5240       440
  96.8980       413
  97.2720       403
  97.6460       412
  98.0200       399
  98.3940       439
  98.7680       419
  99.1420       422
  99.5160       393
  99.8900       424
 100.2640       441
 100.6380       521
 101.0120       462
 101.3860       440
 101.7600       440
 102.1340       370
 102.5080       425
 102.8820       410
 103.2560       380
 103.6300       403
 104.0040       369
 104.3780       416
 104.7520       438
 105.1260       364
 105.5000       372
 105.8740       388
 106.2480       414
 106.6220       424
 106.9960       433
 107.3700       374
 107.7440       425
 108.1180       375
 108.4920       414
 108.8660       437
 109.2400       435
 109.6140       418
 109.9880       439
 110.3620       529
 110.7360       495
 111.1100       536
 111.4840       464
 111.8580       425
 112.2320       445
 112.6060       436
 112.9800       417
 113.3540       372
 113.7280       402
 114.1020       417
 114.4760       467
 114.8500       431
 115.2240       480
 115.5980       433
 115.9720       455
 116.3460       460
 116.7200       426
 117.0940       431
 117.4680       451
 117.8420       426
 118.2160       426
 118.5900       467
 118.9640       429
 119.3380       423
 119.7120       433
 120.0860       425
 120.4600       393
 120.8340       465
 121.2080       441
 121.5820       479
 121.9560       444
 122.0000       485