File: old/ueberstruktur/Ueberstruktur (2)/faber/probe3.UXD
; C:\Data\Froehlich\Praktikum\faber\probe3.raw(Diffrac Plus V1.01 file) converted by XCH V1.0
_FILEVERSION=2
_SAMPLE='probe3'
_SITE='II. Physikalisches Institut'
_ATTACHMENTS_CODE=0
_GONIOMETER_RADIUS=200.5
_FIXED_DIVSLIT=2.000000
_FIXED_SAMPLESLIT=1.000000
_FIXED_DETSLIT=0.200000
_MONOCHROMATOR=0
; None
_THIN_FILM='N'
_BETA_FILTER='Y'
_FIXED_ANTISLIT=2.000000
_ANALYZER_CODE=0
; None
_DATEMEASURED='12-Nov-2015 14:08:13'
_WL_UNIT='A'
_WL1=1.540590
_WL2=1.544430
_WL3=1.392230
_WLRATIO=0.520000
_ANODE='Cu'
; (Data for Range number 1)
_DRIVE='COUPLED'
_STEPTIME=2.000000
_STEPSIZE=0.022000
_STEPMODE='C'
_START=12
_THETA=6.000000
_2THETA=12
_KHI=0.000000
_PHI=0.000000
_X=0.000000
_Y=0.000000
_Z=0.000000
_DIVERGENCE=0.000000
_ANTISCATTER=0.000000
_DETECTOR=1
; S.C.
_HV=1000
_GAIN=80
_LLD=0.550000
_ULD=1.310000
_DETECTORSLIT='unkn'
_AUX1=0.000000
_AUX2=0.000000
_AUX3=0.000000
_TIMESTARTED=12
_ROTATION_SPEED=120
_TEMP_RATE=-1.000000
_TEMP_DELAY=-1.000000
_KV=40
_MA=40
_RANGE_WL=1.540590
_3DPLANE=0
_2THETACOUNTS
  12.0000       297
  12.3740       275
  12.7480       281
  13.1220       279
  13.4960       256
  13.8700       230
  14.2440       268
  14.6180       273
  14.9920       270
  15.3660       295
  15.7400       275
  16.1140       304
  16.4880       289
  16.8620       305
  17.2360       320
  17.6100       316
  17.9840       331
  18.3580       378
  18.7320       355
  19.1060       347
  19.4800       375
  19.8540       355
  20.2280       407
  20.6020       380
  20.9760       397
  21.3500       425
  21.7240       445
  22.0980       420
  22.4720       416
  22.8460       495
  23.2200       435
  23.5940       448
  23.9680       443
  24.3420       456
  24.7160       439
  25.0900       465
  25.4640       471
  25.8380       455
  26.2120       414
  26.5860       434
  26.9600       485
  27.3340       450
  27.7080       461
  28.0820       481
  28.4560       479
  28.8300       458
  29.2040       453
  29.5780       390
  29.9520       434
  30.3260       411
  30.7000       428
  31.0740       415
  31.4480       430
  31.8220       425
  32.1960       380
  32.5700       408
  32.9440       408
  33.3180       373
  33.6920       451
  34.0660       365
  34.4400       437
  34.8140       379
  35.1880       406
  35.5620       374
  35.9360       390
  36.3100       403
  36.6840       414
  37.0580       382
  37.4320       440
  37.8060       456
  38.1800       439
  38.5540       408
  38.9280       378
  39.3020       399
  39.6760       375
  40.0500       376
  40.4240       420
  40.7980       438
  41.1720       478
  41.5460       939
  41.9200      4301
  42.2940       860
  42.6680       501
  43.0420       444
  43.4160       425
  43.7900       461
  44.1640       416
  44.5380       376
  44.9120       389
  45.2860       393
  45.6600       374
  46.0340       394
  46.4080       400
  46.7820       402
  47.1560       474
  47.5300       446
  47.9040       526
  48.2780       890
  48.6520      2325
  49.0260      1051
  49.4000       522
  49.7740       431
  50.1480       384
  50.5220       391
  50.8960       407
  51.2700       399
  51.6440       401
  52.0180       427
  52.3920       412
  52.7660       391
  53.1400       410
  53.5140       450
  53.8880       365
  54.2620       372
  54.6360       429
  55.0100       386
  55.3840       410
  55.7580       399
  56.1320       394
  56.5060       373
  56.8800       403
  57.2540       382
  57.6280       389
  58.0020       437
  58.3760       406
  58.7500       398
  59.1240       396
  59.4980       411
  59.8720       385
  60.2460       358
  60.6200       390
  60.9940       407
  61.3680       418
  61.7420       417
  62.1160       384
  62.4900       422
  62.8640       365
  63.2380       404
  63.6120       437
  63.9860       417
  64.3600       396
  64.7340       409
  65.1080       403
  65.4820       372
  65.8560       441
  66.2300       384
  66.6040       390
  66.9780       367
  67.3520       384
  67.7260       404
  68.1000       378
  68.4740       426
  68.8480       378
  69.2220       429
  69.5960       421
  69.9700       452
  70.3440       397
  70.7180       539
  71.0920       972
  71.4660       912
  71.8400       505
  72.2140       406
  72.5880       379
  72.9620       411
  73.3360       392
  73.7100       428
  74.0840       437
  74.4580       406
  74.8320       375
  75.2060       423
  75.5800       431
  75.9540       379
  76.3280       424
  76.7020       380
  77.0760       395
  77.4500       351
  77.8240       415
  78.1980       413
  78.5720       414
  78.9460       439
  79.3200       425
  79.6940       422
  80.0680       417
  80.4420       402
  80.8160       434
  81.1900       392
  81.5640       436
  81.9380       426
  82.3120       414
  82.6860       442
  83.0600       419
  83.4340       432
  83.8080       424
  84.1820       403
  84.5560       414
  84.9300       468
  85.3040       525
  85.6780       742
  86.0520      1075
  86.4260       790
  86.8000       527
  87.1740       442
  87.5480       461
  87.9220       438
  88.2960       400
  88.6700       397
  89.0440       403
  89.4180       445
  89.7920       419
  90.1660       442
  90.5400       460
  90.9140       574
  91.2880       504
  91.6620       396
  92.0360       383
  92.4100       421
  92.7840       387
  93.1580       385
  93.5320       394
  93.9060       411
  94.2800       425
  94.6540       400
  95.0280       400
  95.4020       388
  95.7760       375
  96.1500       430
  96.5240       399
  96.8980       413
  97.2720       420
  97.6460       386
  98.0200       425
  98.3940       431
  98.7680       441
  99.1420       381
  99.5160       395
  99.8900       385
 100.2640       404
 100.6380       380
 101.0120       414
 101.3860       379
 101.7600       403
 102.1340       410
 102.5080       380
 102.8820       400
 103.2560       429
 103.6300       381
 104.0040       391
 104.3780       379
 104.7520       410
 105.1260       413
 105.5000       441
 105.8740       383
 106.2480       418
 106.6220       403
 106.9960       429
 107.3700       407
 107.7440       434
 108.1180       452
 108.4920       425
 108.8660       411
 109.2400       447
 109.6140       430
 109.9880       450
 110.3620       508
 110.7360       489
 111.1100       433
 111.4840       455
 111.8580       440
 112.2320       447
 112.6060       424
 112.9800       420
 113.3540       441
 113.7280       427
 114.1020       438
 114.4760       433
 114.8500       451
 115.2240       417
 115.5980       457
 115.9720       415
 116.3460       457
 116.7200       438
 117.0940       459
 117.4680       398
 117.8420       423
 118.2160       438
 118.5900       463
 118.9640       477
 119.3380       414
 119.7120       422
 120.0860       416
 120.4600       418
 120.8340       460
 121.2080       435
 121.5820       448
 121.9560       429
 122.0000       437