File: old/ueberstruktur/Ueberstruktur (2)/faber/probe1.UXD
; C:\Data\Froehlich\Praktikum\faber\probe1.raw(Diffrac Plus V1.01 file) converted by XCH V1.0
_FILEVERSION=2
_SAMPLE='probe1'
_SITE='II. Physikalisches Institut'
_ATTACHMENTS_CODE=0
_GONIOMETER_RADIUS=200.5
_FIXED_DIVSLIT=2.000000
_FIXED_SAMPLESLIT=1.000000
_FIXED_DETSLIT=0.200000
_MONOCHROMATOR=0
; None
_THIN_FILM='N'
_BETA_FILTER='Y'
_FIXED_ANTISLIT=2.000000
_ANALYZER_CODE=0
; None
_DATEMEASURED='14-Nov-2015 01:56:36'
_WL_UNIT='A'
_WL1=1.540590
_WL2=1.544430
_WL3=1.392230
_WLRATIO=0.520000
_ANODE='Cu'
; (Data for Range number 1)
_DRIVE='COUPLED'
_STEPTIME=2.000000
_STEPSIZE=0.022000
_STEPMODE='C'
_START=12
_THETA=6.000000
_2THETA=12
_KHI=0.000000
_PHI=0.000000
_X=0.000000
_Y=0.000000
_Z=0.000000
_DIVERGENCE=0.000000
_ANTISCATTER=0.000000
_DETECTOR=1
; S.C.
_HV=1000
_GAIN=80
_LLD=0.550000
_ULD=1.310000
_DETECTORSLIT='unkn'
_AUX1=0.000000
_AUX2=0.000000
_AUX3=0.000000
_TIMESTARTED=14
_ROTATION_SPEED=120
_TEMP_RATE=-1.000000
_TEMP_DELAY=-1.000000
_KV=40
_MA=40
_RANGE_WL=1.540590
_3DPLANE=0
_2THETACOUNTS
  12.0000       301
  12.3740       292
  12.7480       295
  13.1220       268
  13.4960       277
  13.8700       308
  14.2440       266
  14.6180       275
  14.9920       256
  15.3660       257
  15.7400       273
  16.1140       302
  16.4880       254
  16.8620       307
  17.2360       299
  17.6100       292
  17.9840       299
  18.3580       328
  18.7320       329
  19.1060       349
  19.4800       363
  19.8540       362
  20.2280       393
  20.6020       363
  20.9760       382
  21.3500       377
  21.7240       384
  22.0980       384
  22.4720       407
  22.8460       392
  23.2200       385
  23.5940       429
  23.9680       523
  24.3420       454
  24.7160       399
  25.0900       395
  25.4640       399
  25.8380       400
  26.2120       360
  26.5860       363
  26.9600       381
  27.3340       375
  27.7080       367
  28.0820       344
  28.4560       350
  28.8300       342
  29.2040       345
  29.5780       329
  29.9520       336
  30.3260       312
  30.7000       361
  31.0740       313
  31.4480       332
  31.8220       281
  32.1960       302
  32.5700       296
  32.9440       301
  33.3180       320
  33.6920       317
  34.0660       403
  34.4400       350
  34.8140       298
  35.1880       270
  35.5620       268
  35.9360       243
  36.3100       259
  36.6840       260
  37.0580       243
  37.4320       267
  37.8060       278
  38.1800       258
  38.5540       274
  38.9280       244
  39.3020       239
  39.6760       240
  40.0500       243
  40.4240       219
  40.7980       234
  41.1720       234
  41.5460       349
  41.9200      1472
  42.2940       434
  42.6680       236
  43.0420       274
  43.4160       250
  43.7900       268
  44.1640       215
  44.5380       237
  44.9120       239
  45.2860       229
  45.6600       236
  46.0340       217
  46.4080       250
  46.7820       239
  47.1560       219
  47.5300       239
  47.9040       277
  48.2780       385
  48.6520       753
  49.0260       479
  49.4000       284
  49.7740       234
  50.1480       238
  50.5220       232
  50.8960       212
  51.2700       217
  51.6440       223
  52.0180       183
  52.3920       219
  52.7660       214
  53.1400       237
  53.5140       232
  53.8880       214
  54.2620       240
  54.6360       246
  55.0100       332
  55.3840       233
  55.7580       202
  56.1320       211
  56.5060       211
  56.8800       228
  57.2540       196
  57.6280       228
  58.0020       211
  58.3760       208
  58.7500       247
  59.1240       233
  59.4980       196
  59.8720       225
  60.2460       264
  60.6200       310
  60.9940       263
  61.3680       223
  61.7420       220
  62.1160       230
  62.4900       220
  62.8640       239
  63.2380       203
  63.6120       217
  63.9860       245
  64.3600       217
  64.7340       243
  65.1080       251
  65.4820       218
  65.8560       223
  66.2300       197
  66.6040       240
  66.9780       245
  67.3520       215
  67.7260       223
  68.1000       231
  68.4740       252
  68.8480       255
  69.2220       227
  69.5960       235
  69.9700       228
  70.3440       235
  70.7180       274
  71.0920       443
  71.4660       547
  71.8400       267
  72.2140       208
  72.5880       232
  72.9620       230
  73.3360       226
  73.7100       256
  74.0840       218
  74.4580       231
  74.8320       239
  75.2060       213
  75.5800       211
  75.9540       224
  76.3280       263
  76.7020       260
  77.0760       194
  77.4500       226
  77.8240       255
  78.1980       210
  78.5720       224
  78.9460       233
  79.3200       226
  79.6940       207
  80.0680       223
  80.4420       238
  80.8160       240
  81.1900       238
  81.5640       224
  81.9380       226
  82.3120       209
  82.6860       218
  83.0600       195
  83.4340       195
  83.8080       216
  84.1820       200
  84.5560       217
  84.9300       218
  85.3040       232
  85.6780       362
  86.0520       564
  86.4260       414
  86.8000       263
  87.1740       223
  87.5480       212
  87.9220       219
  88.2960       215
  88.6700       219
  89.0440       199
  89.4180       200
  89.7920       213
  90.1660       249
  90.5400       222
  90.9140       322
  91.2880       259
  91.6620       232
  92.0360       207
  92.4100       192
  92.7840       228
  93.1580       190
  93.5320       202
  93.9060       198
  94.2800       209
  94.6540       214
  95.0280       214
  95.4020       227
  95.7760       224
  96.1500       219
  96.5240       210
  96.8980       198
  97.2720       215
  97.6460       204
  98.0200       205
  98.3940       219
  98.7680       217
  99.1420       196
  99.5160       234
  99.8900       224
 100.2640       264
 100.6380       248
 101.0120       246
 101.3860       219
 101.7600       229
 102.1340       216
 102.5080       191
 102.8820       231
 103.2560       214
 103.6300       209
 104.0040       219
 104.3780       220
 104.7520       215
 105.1260       235
 105.5000       210
 105.8740       206
 106.2480       233
 106.6220       207
 106.9960       226
 107.3700       213
 107.7440       237
 108.1180       207
 108.4920       199
 108.8660       190
 109.2400       213
 109.6140       225
 109.9880       243
 110.3620       259
 110.7360       260
 111.1100       249
 111.4840       254
 111.8580       237
 112.2320       243
 112.6060       239
 112.9800       210
 113.3540       207
 113.7280       220
 114.1020       236
 114.4760       219
 114.8500       244
 115.2240       263
 115.5980       219
 115.9720       260
 116.3460       265
 116.7200       249
 117.0940       236
 117.4680       231
 117.8420       224
 118.2160       209
 118.5900       236
 118.9640       239
 119.3380       228
 119.7120       233
 120.0860       260
 120.4600       244
 120.8340       242
 121.2080       239
 121.5820       292
 121.9560       234
 122.0000       246